Data from Subt4_20-24-47-382.txt Node
Date: Wed Mar 25 20:24:47 IRKT 2020
User: Ecophotonics_1
Spectrometer: QEP00701
Autoset integration time: false
Trigger mode: 4
Integration Time (sec): 1,000000E-1
Scans to average: 1
Electric dark correction enabled: true
Nonlinearity correction enabled: false
Boxcar width: 0
XAxis mode: Wavelengths
Stop averaging: false
Number of Pixels in Spectrum: 1044
>>>>>Begin Spectral Data<<<<<
347,149	1,75
347,94	-4,25
348,731	-0,25
349,522	2,75
350,313	3,75
351,104	-2,25
351,895	2,75
352,685	8,75
353,476	-1,25
354,267	1,75
355,057	0,75
355,848	2,75
356,638	6,75
357,428	7,75
358,219	3,75
359,009	4,75
359,799	4,75
360,589	4,75
361,379	2,75
362,169	2,75
362,959	7,75
363,749	5,75
364,538	5,75
365,328	0,75
366,118	0,75
366,907	1,75
367,697	8,75
368,486	-0,25
369,275	2,75
370,065	2,75
370,854	7,75
371,643	4,75
372,432	7,75
373,221	5,75
374,01	2,75
374,799	3,75
375,588	1,75
376,376	9,75
377,165	3,75
377,954	1,75
378,742	3,75
379,531	4,75
380,319	4,75
381,107	3,75
381,896	1,75
382,684	4,75
383,472	7,75
384,26	4,75
385,048	4,75
385,836	4,75
386,624	6,75
387,412	0,75
388,199	-2,25
388,987	2,75
389,775	4,75
390,562	-2,25
391,35	6,75
392,137	0,75
392,925	4,75
393,712	3,75
394,499	3,75
395,286	8,75
396,073	5,75
396,86	3,75
397,647	6,75
398,434	5,75
399,221	4,75
400,008	0,75
400,794	7,75
401,581	4,75
402,367	3,75
403,154	8,75
403,94	5,75
404,727	5,75
405,513	0,75
406,299	6,75
407,085	9,75
407,871	-0,25
408,657	7,75
409,443	1,75
410,229	6,75
411,015	-0,25
411,801	7,75
412,586	5,75
413,372	3,75
414,158	12,75
414,943	6,75
415,729	-1,25
416,514	4,75
417,299	-0,25
418,084	8,75
418,869	0,75
419,655	7,75
420,44	5,75
421,224	4,75
422,009	1,75
422,794	7,75
423,579	3,75
424,364	6,75
425,148	5,75
425,933	4,75
426,717	8,75
427,502	-1,25
428,286	9,75
429,07	0,75
429,854	2,75
430,638	10,75
431,422	15,75
432,206	-0,25
432,99	2,75
433,774	3,75
434,558	11,75
435,342	4,75
436,125	4,75
436,909	9,75
437,693	8,75
438,476	0,75
439,259	0,75
440,043	6,75
440,826	2,75
441,609	9,75
442,392	4,75
443,175	4,75
443,958	7,75
444,741	5,75
445,524	-1,25
446,307	1,75
447,089	2,75
447,872	-0,25
448,655	10,75
449,437	8,75
450,22	9,75
451,002	6,75
451,784	6,75
452,566	1,75
453,349	13,75
454,131	7,75
454,913	5,75
455,695	-2,25
456,477	2,75
457,258	6,75
458,04	2,75
458,822	3,75
459,603	3,75
460,385	4,75
461,166	8,75
461,948	10,75
462,729	0,75
463,51	9,75
464,292	5,75
465,073	0,75
465,854	6,75
466,635	4,75
467,416	-1,25
468,197	4,75
468,977	7,75
469,758	6,75
470,539	6,75
471,319	2,75
472,1	7,75
472,88	7,75
473,661	4,75
474,441	4,75
475,221	0,75
476,001	7,75
476,781	5,75
477,561	9,75
478,341	0,75
479,121	7,75
479,901	2,75
480,681	-5,25
481,461	7,75
482,24	-0,25
483,02	3,75
483,799	2,75
484,579	-2,25
485,358	5,75
486,137	1,75
486,916	4,75
487,696	4,75
488,475	6,75
489,254	0,75
490,033	9,75
490,811	12,75
491,59	6,75
492,369	4,75
493,148	1,75
493,926	9,75
494,705	6,75
495,483	2,75
496,261	-2,25
497,04	0,75
497,818	7,75
498,596	2,75
499,374	5,75
500,152	6,75
500,93	13,75
501,708	4,75
502,486	1,75
503,264	-2,25
504,041	3,75
504,819	-0,25
505,596	7,75
506,374	8,75
507,151	5,75
507,929	9,75
508,706	3,75
509,483	2,75
510,26	3,75
511,037	4,75
511,814	3,75
512,591	10,75
513,368	8,75
514,145	8,75
514,921	-0,25
515,698	4,75
516,475	0,75
517,251	18,75
518,027	2,75
518,804	3,75
519,58	2,75
520,356	2,75
521,132	2,75
521,908	7,75
522,684	7,75
523,46	6,75
524,236	1,75
525,012	3,75
525,788	5,75
526,563	8,75
527,339	3,75
528,114	-1,25
528,89	-1,25
529,665	7,75
530,441	5,75
531,216	7,75
531,991	5,75
532,766	2,75
533,541	4,75
534,316	8,75
535,091	3,75
535,866	5,75
536,64	5,75
537,415	8,75
538,19	9,75
538,964	13,75
539,739	4,75
540,513	11,75
541,287	3,75
542,061	15,75
542,836	1,75
543,61	5,75
544,384	4,75
545,158	4,75
545,932	4,75
546,705	-1,25
547,479	7,75
548,253	15,75
549,026	9,75
549,8	10,75
550,573	-4,25
551,347	3,75
552,12	10,75
552,893	-1,25
553,666	0,75
554,44	4,75
555,213	1,75
555,986	-11,25
556,758	8,75
557,531	9,75
558,304	6,75
559,077	11,75
559,849	2,75
560,622	7,75
561,394	2,75
562,167	4,75
562,939	11,75
563,711	5,75
564,483	4,75
565,255	0,75
566,027	5,75
566,799	2,75
567,571	3,75
568,343	8,75
569,115	-3,25
569,887	6,75
570,658	9,75
571,43	11,75
572,201	12,75
572,972	3,75
573,744	8,75
574,515	-1,25
575,286	5,75
576,057	-4,25
576,828	6,75
577,599	0,75
578,37	6,75
579,141	1,75
579,912	14,75
580,682	3,75
581,453	7,75
582,224	-0,25
582,994	11,75
583,764	5,75
584,535	2,75
585,305	-5,25
586,075	13,75
586,845	17,75
587,615	7,75
588,385	6,75
589,155	-4,25
589,925	7,75
590,695	4,75
591,464	1,75
592,234	6,75
593,003	-2,25
593,773	11,75
594,542	2,75
595,311	4,75
596,081	3,75
596,85	6,75
597,619	6,75
598,388	9,75
599,157	8,75
599,926	11,75
600,694	3,75
601,463	6,75
602,232	3,75
603	3,75
603,769	12,75
604,537	5,75
605,306	9,75
606,074	0,75
606,842	6,75
607,61	4,75
608,378	1,75
609,146	8,75
609,914	-0,25
610,682	0,75
611,45	18,75
612,218	4,75
612,985	10,75
613,753	6,75
614,52	2,75
615,288	6,75
616,055	7,75
616,822	4,75
617,59	5,75
618,357	5,75
619,124	4,75
619,891	9,75
620,658	10,75
621,424	5,75
622,191	3,75
622,958	13,75
623,724	2,75
624,491	9,75
625,257	7,75
626,024	3,75
626,79	14,75
627,556	8,75
628,323	3,75
629,089	15,75
629,855	6,75
630,621	3,75
631,387	12,75
632,152	7,75
632,918	5,75
633,684	3,75
634,449	7,75
635,215	1,75
635,98	5,75
636,746	1,75
637,511	14,75
638,276	0,75
639,041	11,75
639,806	8,75
640,571	0,75
641,336	2,75
642,101	2,75
642,866	8,75
643,631	4,75
644,395	11,75
645,16	3,75
645,924	13,75
646,689	11,75
647,453	7,75
648,217	3,75
648,981	7,75
649,746	5,75
650,51	1,75
651,274	4,75
652,037	1,75
652,801	1,75
653,565	9,75
654,329	5,75
655,092	6,75
655,856	5,75
656,619	7,75
657,383	8,75
658,146	9,75
658,909	7,75
659,672	9,75
660,435	6,75
661,198	12,75
661,961	2,75
662,724	2,75
663,487	1,75
664,25	9,75
665,012	4,75
665,775	8,75
666,537	7,75
667,3	7,75
668,062	9,75
668,824	6,75
669,587	8,75
670,349	5,75
671,111	6,75
671,873	8,75
672,635	3,75
673,396	4,75
674,158	10,75
674,92	4,75
675,681	4,75
676,443	9,75
677,204	8,75
677,966	10,75
678,727	14,75
679,488	1,75
680,249	5,75
681,01	2,75
681,771	8,75
682,532	12,75
683,293	10,75
684,054	8,75
684,815	4,75
685,575	7,75
686,336	6,75
687,096	-1,25
687,857	3,75
688,617	5,75
689,377	5,75
690,137	8,75
690,898	13,75
691,658	8,75
692,417	6,75
693,177	2,75
693,937	5,75
694,697	7,75
695,457	9,75
696,216	3,75
696,976	8,75
697,735	3,75
698,494	6,75
699,254	9,75
700,013	13,75
700,772	7,75
701,531	5,75
702,29	8,75
703,049	10,75
703,808	14,75
704,566	10,75
705,325	12,75
706,084	5,75
706,842	6,75
707,601	1,75
708,359	13,75
709,117	8,75
709,875	7,75
710,634	15,75
711,392	11,75
712,15	7,75
712,908	12,75
713,665	3,75
714,423	9,75
715,181	1,75
715,938	5,75
716,696	10,75
717,453	14,75
718,211	15,75
718,968	3,75
719,725	11,75
720,483	4,75
721,24	13,75
721,997	7,75
722,754	11,75
723,51	3,75
724,267	10,75
725,024	12,75
725,78	11,75
726,537	10,75
727,293	9,75
728,05	20,75
728,806	16,75
729,562	8,75
730,319	19,75
731,075	15,75
731,831	13,75
732,587	11,75
733,343	17,75
734,098	11,75
734,854	17,75
735,61	15,75
736,365	15,75
737,121	13,75
737,876	16,75
738,631	13,75
739,387	14,75
740,142	20,75
740,897	15,75
741,652	14,75
742,407	8,75
743,162	21,75
743,917	19,75
744,671	11,75
745,426	12,75
746,18	13,75
746,935	15,75
747,689	12,75
748,444	11,75
749,198	17,75
749,952	13,75
750,706	27,75
751,46	9,75
752,214	21,75
752,968	23,75
753,722	19,75
754,476	17,75
755,229	21,75
755,983	22,75
756,736	22,75
757,49	21,75
758,243	17,75
758,996	18,75
759,75	22,75
760,503	15,75
761,256	19,75
762,009	23,75
762,761	19,75
763,514	19,75
764,267	22,75
765,02	27,75
765,772	27,75
766,525	17,75
767,277	28,75
768,029	21,75
768,782	22,75
769,534	20,75
770,286	21,75
771,038	21,75
771,79	21,75
772,542	24,75
773,294	32,75
774,045	25,75
774,797	32,75
775,548	26,75
776,3	28,75
777,051	28,75
777,803	26,75
778,554	26,75
779,305	27,75
780,056	26,75
780,807	26,75
781,558	25,75
782,309	29,75
783,06	30,75
783,811	28,75
784,561	34,75
785,312	31,75
786,062	26,75
786,813	28,75
787,563	24,75
788,313	35,75
789,063	29,75
789,813	21,75
790,563	32,75
791,313	30,75
792,063	31,75
792,813	32,75
793,563	28,75
794,312	32,75
795,062	33,75
795,811	25,75
796,561	33,75
797,31	37,75
798,059	33,75
798,808	30,75
799,557	34,75
800,306	32,75
801,055	34,75
801,804	43,75
802,553	39,75
803,302	39,75
804,05	39,75
804,799	50,75
805,547	45,75
806,295	40,75
807,044	52,75
807,792	43,75
808,54	46,75
809,288	49,75
810,036	49,75
810,784	43,75
811,532	54,75
812,28	44,75
813,027	55,75
813,775	49,75
814,522	54,75
815,27	54,75
816,017	49,75
816,764	63,75
817,512	70,75
818,259	64,75
819,006	67,75
819,753	70,75
820,499	71,75
821,246	72,75
821,993	74,75
822,74	75,75
823,486	82,75
824,233	86,75
824,979	87,75
825,725	88,75
826,472	96,75
827,218	87,75
827,964	97,75
828,71	102,75
829,456	108,75
830,202	121,75
830,947	120,75
831,693	115,75
832,439	128,75
833,184	134,75
833,93	135,75
834,675	141,75
835,42	148,75
836,166	151,75
836,911	161,75
837,656	163,75
838,401	176,75
839,146	181,75
839,89	192,75
840,635	194,75
841,38	194,75
842,124	212,75
842,869	237,75
843,613	256,75
844,358	265,75
845,102	264,75
845,846	283,75
846,59	277,75
847,334	305,75
848,078	323,75
848,822	339,75
849,566	367,75
850,31	375,75
851,053	401,75
851,797	427,75
852,54	433,75
853,284	488,75
854,027	467,75
854,77	517,75
855,513	548,75
856,256	579,75
856,999	605,75
857,742	648,75
858,485	695,75
859,228	719,75
859,971	758,75
860,713	803,75
861,456	854,75
862,198	899,75
862,94	942,75
863,683	1018,75
864,425	1104,75
865,167	1139,75
865,909	1210,75
866,651	1264,75
867,393	1309,75
868,135	1393,75
868,876	1494,75
869,618	1540,75
870,359	1651,75
871,101	1697,75
871,842	1787,75
872,584	1900,75
873,325	1984,75
874,066	2043,75
874,807	2182,75
875,548	2354,75
876,289	2449,75
877,03	2561,75
877,771	2629,75
878,511	2713,75
879,252	2764,75
879,992	2920,75
880,733	2996,75
881,473	3093,75
882,213	3197,75
882,953	3335,75
883,694	3405,75
884,434	3584,75
885,174	3664,75
885,913	3772,75
886,653	3892,75
887,393	4012,75
888,132	4248,75
888,872	4356,75
889,611	4532,75
890,351	4720,75
891,09	4819,75
891,829	5001,75
892,568	5194,75
893,308	5307,75
894,047	5352,75
894,785	5453,75
895,524	5565,75
896,263	5727,75
897,002	5971,75
897,74	6138,75
898,479	6264,75
899,217	6604,75
899,955	6800,75
900,694	6991,75
901,432	7039,75
902,17	7123,75
902,908	7299,75
903,646	7424,75
904,384	7533,75
905,121	7841,75
905,859	8029,75
906,597	8217,75
907,334	8401,75
908,072	8625,75
908,809	8854,75
909,546	9013,75
910,283	9239,75
911,02	9348,75
911,757	9479,75
912,494	9689,75
913,231	9877,75
913,968	9958,75
914,705	10166,75
915,441	10481,75
916,178	10749,75
916,914	11140,75
917,651	11120,75
918,387	11302,75
919,123	11598,75
919,859	11799,75
920,595	11727,75
921,331	11847,75
922,067	11962,75
922,803	12204,75
923,539	12468,75
924,274	12662,75
925,01	12948,75
925,745	13262,75
926,481	13397,75
927,216	13521,75
927,951	13629,75
928,686	13777,75
929,421	13933,75
930,156	14054,75
930,891	14131,75
931,626	14323,75
932,361	14470,75
933,096	14649,75
933,83	14694,75
934,565	14788,75
935,299	14861,75
936,033	14883,75
936,768	15029,75
937,502	15332,75
938,236	15595,75
938,97	15657,75
939,704	15715,75
940,438	15965,75
941,171	16193,75
941,905	16482,75
942,638	16606,75
943,372	16677,75
944,105	16948,75
944,839	16951,75
945,572	17121,75
946,305	17213,75
947,038	17329,75
947,771	17883,75
948,504	18156,75
949,237	18218,75
949,97	18358,75
950,702	18436,75
951,435	18559,75
952,168	18645,75
952,9	18693,75
953,632	18670,75
954,365	18614,75
955,097	18532,75
955,829	18445,75
956,561	18355,75
957,293	18191,75
958,025	18129,75
958,756	17925,75
959,488	17667,75
960,22	17660,75
960,951	17588,75
961,683	17510,75
962,414	17364,75
963,145	17156,75
963,876	16751,75
964,608	16397,75
965,339	15758,75
966,069	15198,75
966,8	14671,75
967,531	13908,75
968,262	13315,75
968,992	12818,75
969,723	12520,75
970,453	12036,75
971,184	11596,75
971,914	10958,75
972,644	10358,75
973,374	9775,75
974,104	9230,75
974,834	8658,75
975,564	8120,75
976,294	7673,75
977,023	7158,75
977,753	6683,75
978,483	6269,75
979,212	5812,75
979,941	5384,75
980,671	4982,75
981,4	4666,75
982,129	4276,75
982,858	3958,75
983,587	3628,75
984,316	3376,75
985,045	3121,75
985,773	2840,75
986,502	2610,75
987,23	2433,75
987,959	2210,75
988,687	2031,75
989,415	1904,75
990,144	1761,75
990,872	1572,75
991,6	1496,75
992,328	1372,75
993,055	1252,75
993,783	1186,75
994,511	1094,75
995,238	1014,75
995,966	932,75
996,693	876,75
997,421	802,75
998,148	732,75
998,875	705,75
999,602	634,75
1000,329	604,75
1001,056	558,75
1001,783	529,75
1002,51	488,75
1003,236	477,75
1003,963	440,75
1004,69	423,75
1005,416	379,75
1006,142	364,75
1006,869	348,75
1007,595	322,75
1008,321	301,75
1009,047	299,75
1009,773	268,75
1010,499	251,75
1011,224	244,75
1011,95	234,75
1012,675	219,75
1013,401	207,75
1014,126	207,75
1014,852	188,75
1015,577	185,75
1016,302	171,75
1017,027	167,75
1017,752	164,75
1018,477	144,75
1019,202	150,75
1019,927	144,75
1020,651	134,75
1021,376	130,75
1022,1	118,75
1022,825	111,75
1023,549	108,75
1024,273	104,75
1024,997	103,75
1025,721	96,75
1026,445	90,75
1027,169	94,75
1027,893	85,75
1028,617	83,75
1029,34	81,75
1030,064	81,75
1030,787	73,75
1031,511	77,75
1032,234	74,75
1032,957	69,75
1033,68	63,75
1034,403	66,75
1035,126	69,75
1035,849	62,75
1036,572	58,75
1037,295	59,75
1038,017	57,75
1038,74	57,75
1039,462	52,75
1040,184	60,75
1040,907	52,75
1041,629	50,75
1042,351	46,75
1043,073	54,75
1043,795	48,75
1044,517	46,75
1045,238	48,75
1045,96	39,75
1046,682	44,75
1047,403	36,75
1048,125	39,75
1048,846	40,75
1049,567	39,75
1050,288	35,75
1051,009	41,75
1051,73	40,75
1052,451	32,75
1053,172	35,75
1053,893	36,75
1054,613	36,75
1055,334	35,75
1056,054	29,75
1056,775	37,75
1057,495	32,75
1058,215	37,75
1058,935	26,75
1059,656	32,75
1060,375	35,75
1061,095	30,75
1061,815	25,75
1062,535	29,75
1063,254	24,75
1063,974	27,75
1064,693	28,75
1065,413	36,75
1066,132	23,75
1066,851	19,75
1067,57	20,75
1068,289	22,75
1069,008	20,75
1069,727	25,75
1070,446	25,75
1071,164	22,75
1071,883	29,75
1072,601	18,75
1073,32	20,75
1074,038	23,75
1074,756	23,75
1075,475	19,75
1076,193	18,75
1076,911	23,75
1077,628	19,75
1078,346	21,75
1079,064	26,75
1079,782	18,75
1080,499	20,75
1081,217	17,75
1081,934	19,75
1082,651	19,75
1083,368	19,75
1084,085	23,75
1084,803	18,75
1085,519	22,75
1086,236	19,75
1086,953	21,75
1087,67	22,75
1088,386	21,75
1089,103	17,75
1089,819	16,75
1090,536	16,75
1091,252	14,75
1091,968	20,75
1092,684	21,75
1093,4	22,75
1094,116	16,75
1094,832	16,75
1095,547	17,75
1096,263	21,75
1096,979	15,75
1097,694	17,75
1098,409	15,75
1099,125	13,75
1099,84	12,75
1100,555	14,75
1101,27	20,75
1101,985	9,75
1102,7	17,75
1103,414	15,75
1104,129	9,75
1104,844	10,75
1105,558	14,75
1106,273	16,75
1106,987	13,75
1107,701	15,75
1108,415	16,75
1109,129	13,75
1109,843	14,75
1110,557	14,75
1111,271	12,75
1111,985	15,75
1112,698	17,75
1113,412	15,75
1114,125	16,75
1114,839	17,75
1115,552	11,75
1116,265	8,75
1116,978	21,75
1117,691	15,75
1118,404	16,75
1119,117	14,75
1119,83	9,75
1120,542	19,75
1121,255	11,75
1121,967	12,75
1122,68	11,75
1123,392	18,75
1124,104	5,75
1124,816	14,75
1125,529	13,75
1126,24	11,75
1126,952	18,75
1127,664	16,75
1128,376	18,75
1129,087	14,75
1129,799	14,75
1130,51	3,75
1131,222	-2,25
1131,933	2,75
1132,644	-4,25
